12.25x3.75  C-2 REV 1   31.12 X 9.53 METRIC             Tue May 5, 1992 14:04:15


       ----- AIRFOIL SUMMARY DATA -----

     DEFINITIONS:
         THE QUOTED PITCH REFLECTS, IN GENERAL, ANGULAR MEASURE
         AS DEFINED WITH A FLAT BOTTOM SURFACE.  THIS WILL
         AGREE WITH A PRATHER GAGE MEASUREMENT OVER MOST OF THE
         EFFECTIVE PORTION OF THE BLADE.
         THE LE-TE MEASURE IS DEFINED IN TERMS OF LEADING EDGE
         AND TRAILING EDGE (MOLD) PARTING LINE DATUMS.
         THE PRATHER MEASURE REFLECTS THE MOST LIKELY PITCH 
         INTERPRETATION FROM A PITCH MEASUREMENT DEVICE.
         THAT RESTS AGAINST THE LOWER SURFACE.
         SWEEP IS DEFINED WITH (MOLD) LE PARTING LINE.
         ZHIGH IS HIGHEST ELEVATION ON TOP SURFACE.
         TWIST IS DEFINED WITH (MOLD) LE AND TE PARTING LINE DATUMS.
         CHORD IS THE LENGTH BETWEEN (MOLD) LE AND TE PARTING LINES.
         CGY IS MASS OFFSET, FORE-AFT.
         CGZ IS MASS OFFSET, ELEVATION.

      STATION     CHORD       PITCH       PITCH        PITCH       SWEEP    THICKNESS      TWIST      MAX THICK  CROSS-SECTION ZHIGH       CGY          CGZ
       (IN)       (IN)       (QUOTED)    (LE-TE)     (PRATHER)      (IN)     RATIO         (DEG)       (IN)      (IN**2)      (IN)         (IN)         (IN)

      1.4419      1.0362      3.3952      3.6084      3.0152      0.5389      0.1738     21.7171      0.1801      0.1541      0.1883      0.0937     -0.0061
      1.5220      1.0335      3.4662      3.6881      3.1168      0.5449      0.1714     21.0898      0.1771      0.1495      0.1863      0.0993     -0.0026
      1.6021      1.0319      3.5293      3.7598      3.2100      0.5511      0.1690     20.4806      0.1744      0.1455      0.1842      0.1048      0.0005
      1.6822      1.0314      3.5845      3.8235      3.2948      0.5576      0.1667     19.8871      0.1720      0.1421      0.1819      0.1102      0.0030
      1.7623      1.0318      3.6318      3.8793      3.3708      0.5642      0.1645     19.3070      0.1698      0.1390      0.1796      0.1155      0.0051
      1.8425      1.0331      3.6711      3.9271      3.4381      0.5709      0.1624     18.7386      0.1678      0.1364      0.1771      0.1206      0.0068
      1.9724      1.0368      3.7180      3.9879      3.5279      0.5819      0.1592     17.8373      0.1650      0.1330      0.1728      0.1284      0.0088
      2.1323      1.0437      3.7472      4.0342      3.6055      0.5954      0.1555     16.7582      0.1623      0.1299      0.1670      0.1372      0.0101
      2.2921      1.0526      3.7500      4.0546      3.6510      0.6084      0.1521     15.7237      0.1601      0.1279      0.1608      0.1449      0.0101
      2.4520      1.0628      3.7500      4.0725      3.6863      0.6206      0.1490     14.8069      0.1584      0.1267      0.1541      0.1515      0.0086
      2.6118      1.0736      3.7500      4.0909      3.7127      0.6316      0.1463     13.9976      0.1571      0.1261      0.1469      0.1570      0.0058
      2.7717      1.0845      3.7500      4.1098      3.7304      0.6410      0.1439     13.2785      0.1560      0.1260      0.1392      0.1611      0.0019
      2.9315      1.0947      3.7500      4.1294      3.7392      0.6484      0.1418     12.6363      0.1552      0.1262      0.1311      0.1638     -0.0031
      3.0914      1.1035      3.7500      4.1497      3.7411      0.6535      0.1400     12.0596      0.1545      0.1266      0.1225      0.1647     -0.0088
      3.2512      1.1105      3.7500      4.1701      3.7410      0.6559      0.1385     11.5377      0.1538      0.1266      0.1133      0.1639     -0.0152
      3.4111      1.1148      3.7500      4.1898      3.7416      0.6551      0.1369     11.0611      0.1526      0.1260      0.1037      0.1612     -0.0221
      3.5709      1.1158      3.7500      4.2086      3.7422      0.6508      0.1353     10.6238      0.1510      0.1247      0.0937      0.1564     -0.0292
      3.7308      1.1129      3.7500      4.2264      3.7426      0.6426      0.1337     10.2206      0.1488      0.1225      0.0831      0.1495     -0.0366
      3.8906      1.1055      3.7500      4.2431      3.7426      0.6302      0.1321      9.8470      0.1460      0.1194      0.0721      0.1403     -0.0442
      4.0505      1.0928      3.7500      4.2586      3.7433      0.6131      0.1305      9.4994      0.1426      0.1153      0.0605      0.1287     -0.0520
      4.2103      1.0742      3.7500      4.2725      3.7434      0.5910      0.1289      9.1744      0.1385      0.1100      0.0485      0.1146     -0.0598
      4.3702      1.0490      3.7500      4.2847      3.7432      0.5635      0.1274      8.8691      0.1336      0.1037      0.0360      0.0980     -0.0676
      4.5300      1.0167      3.7500      4.2949      3.7433      0.5301      0.1258      8.5808      0.1279      0.0962      0.0230      0.0788     -0.0755
      4.6899      0.9765      3.7500      4.3025      3.7427      0.4906      0.1242      8.3071      0.1213      0.0877      0.0096      0.0567     -0.0832
      4.8497      0.9277      3.7500      4.3071      3.7435      0.4445      0.1226      8.0452      0.1137      0.0783     -0.0044      0.0318     -0.0909
      5.0096      0.8699      3.7500      4.3075      3.7436      0.3915      0.1210      7.7926      0.1053      0.0680     -0.0188      0.0038     -0.0985
      5.1694      0.8022      3.7500      4.3025      3.7431      0.3311      0.1194      7.5457      0.0958      0.0572     -0.0337     -0.0271     -0.1060
      5.3293      0.7240      3.7500      4.2895      3.7432      0.2630      0.1178      7.3000      0.0853      0.0462     -0.0491     -0.0613     -0.1132
      5.4891      0.6347      3.7500      4.2866      3.7248      0.1868      0.1163      7.0848      0.0738      0.0352     -0.0650     -0.0987     -0.1204
      5.6490      0.5338      3.7182      4.3383      3.6377      0.1022      0.1147      6.9686      0.0612      0.0247     -0.0811     -0.1395     -0.1272
      5.8088      0.4206      3.6132      4.4268      3.4899      0.0087      0.1131      6.9156      0.0476      0.0153     -0.0971     -0.1838     -0.1333
      5.9646      0.2975      3.4405      4.4991      3.3282     -0.0913      0.1115      6.8457      0.0332      0.0077     -0.1132     -0.2302     -0.1388
      6.1075      0.0767      3.2208      4.2103      5.3712     -0.2866      0.1101      6.2613      0.0085      0.0006     -0.1438     -0.3261     -0.1506

         -----INERTIA AND AREA DATA -----

 TOTAL WEIGHT (LB)          =     0.098326
 TOTAL WEIGHT (Kg)          =     0.044592
 TOTAL VOLUME (IN**3)       =     1.601851
 TOTAL PROJECTED AREA (IN**2) =      11.2950
 MOMENT OF INERTIA (SNAIL-IN**2) =     0.001814
 MOMENT OF INERTIA (Kg-M**2) =     0.000205
 STATIC MOMENT, ONE SIDE (IN-LB) =     0.105876

 SANITY CHECK DATA ARE BELOW 
 DENSITY (SPECIFIC GRAVITY, INPUT FILE)          =    1.700    
 DENSITY (INPUT FILE, LB/IN**3)                  =   0.6138E-01
 AVERAGE DENSITY (FROM WT & VOL ABOVE, LB/IN**3) =   0.6138E-01


       ----- NATURAL FREQUENCY DATA -----

 LOWEST NATURAL BENDING FREQUENCY (IN TERMS OF RPM) =     11677.91

 BASED ON MODULUS (MILLION)   =    2.70
 AND, MATERIAL DENSITY (S.G.) =     1.70


